VARIABLES = T_[K], H-H298_[kcal/mol], G-H298_[kcal/mol], Cp_[cal/(mol_K)], S_[cal/(mol_K)], Viscosity_[gm/(cm-s)], Therm_Cond_[erg/(cm-s-K)], Dif_Co_with_O2_[cm^2/s]
   298.15    0.000     -9.317      6.89      31.25     8.9633E-05 1.8926E+04      0.8171    
   300.00    0.013     -9.375      6.90      31.29     8.9998E-05 1.8993E+04      0.8258    
   310.00    0.082     -9.689      6.91      31.52     9.1955E-05 1.9355E+04      0.8734    
   320.00    0.151    -10.006      6.93      31.74     9.3890E-05 1.9716E+04      0.9222    
   330.00    0.220    -10.324      6.94      31.95     9.5802E-05 2.0077E+04      0.9719    
   340.00    0.290    -10.645      6.95      32.16     9.7693E-05 2.0437E+04       1.023    
   350.00    0.359    -10.967      6.97      32.36     9.9564E-05 2.0797E+04       1.074    
   360.00    0.429    -11.292      6.97      32.56     1.0142E-04 2.1156E+04       1.127    
   370.00    0.499    -11.619      6.98      32.75     1.0325E-04 2.1514E+04       1.181    
   380.00    0.569    -11.947      6.99      32.94     1.0506E-04 2.1872E+04       1.236    
   390.00    0.639    -12.277      6.99      33.12     1.0686E-04 2.2229E+04       1.292    
   400.00    0.709    -12.609      7.00      33.29     1.0864E-04 2.2585E+04       1.348    
   410.00    0.779    -12.943      7.00      33.47     1.1040E-04 2.2941E+04       1.406    
   420.00    0.849    -13.279      7.00      33.64     1.1215E-04 2.3297E+04       1.464    
   430.00    0.919    -13.616      7.00      33.80     1.1389E-04 2.3652E+04       1.524    
   440.00    0.989    -13.955      7.01      33.96     1.1561E-04 2.4006E+04       1.584    
   450.00    1.059    -14.295      7.01      34.12     1.1731E-04 2.4360E+04       1.646    
   460.00    1.129    -14.637      7.01      34.27     1.1900E-04 2.4713E+04       1.708    
   470.00    1.199    -14.981      7.01      34.42     1.2068E-04 2.5066E+04       1.771    
   480.00    1.269    -15.325      7.00      34.57     1.2234E-04 2.5419E+04       1.835    
   490.00    1.339    -15.672      7.00      34.72     1.2399E-04 2.5770E+04       1.900    
   500.00    1.409    -16.020      7.00      34.86     1.2563E-04 2.6122E+04       1.966    
   510.00    1.479    -16.369      7.00      35.00     1.2726E-04 2.6472E+04       2.032    
   520.00    1.549    -16.720      7.00      35.13     1.2887E-04 2.6823E+04       2.100    
   530.00    1.619    -17.072      7.00      35.27     1.3048E-04 2.7172E+04       2.168    
   540.00    1.689    -17.425      7.00      35.40     1.3207E-04 2.7522E+04       2.237    
   550.00    1.759    -17.780      7.00      35.52     1.3366E-04 2.7871E+04       2.307    
   560.00    1.829    -18.136      6.99      35.65     1.3523E-04 2.8219E+04       2.378    
   570.00    1.899    -18.493      6.99      35.77     1.3679E-04 2.8567E+04       2.450    
   580.00    1.969    -18.851      6.99      35.90     1.3834E-04 2.8914E+04       2.522    
   590.00    2.039    -19.211      6.99      36.02     1.3988E-04 2.9261E+04       2.596    
   600.00    2.109    -19.571      6.99      36.13     1.4142E-04 2.9608E+04       2.670    
   610.00    2.179    -19.933      6.99      36.25     1.4294E-04 2.9954E+04       2.745    
   620.00    2.248    -20.296      6.99      36.36     1.4445E-04 3.0300E+04       2.821    
   630.00    2.318    -20.660      6.99      36.47     1.4596E-04 3.0645E+04       2.897    
   640.00    2.388    -21.026      7.00      36.58     1.4745E-04 3.0990E+04       2.975    
   650.00    2.458    -21.392      7.00      36.69     1.4894E-04 3.1334E+04       3.053    
   660.00    2.528    -21.760      7.00      36.80     1.5042E-04 3.1678E+04       3.132    
   670.00    2.598    -22.128      7.00      36.91     1.5189E-04 3.2022E+04       3.212    
   680.00    2.668    -22.498      7.01      37.01     1.5336E-04 3.2365E+04       3.292    
   690.00    2.738    -22.868      7.01      37.11     1.5481E-04 3.2708E+04       3.373    
   700.00    2.809    -23.240      7.01      37.21     1.5626E-04 3.3050E+04       3.455    
   710.00    2.879    -23.613      7.02      37.31     1.5770E-04 3.3392E+04       3.538    
   720.00    2.949    -23.986      7.02      37.41     1.5914E-04 3.3734E+04       3.622    
   730.00    3.019    -24.361      7.03      37.51     1.6056E-04 3.4075E+04       3.706    
   740.00    3.089    -24.736      7.03      37.60     1.6198E-04 3.4416E+04       3.791    
   750.00    3.160    -25.113      7.04      37.70     1.6339E-04 3.4757E+04       3.877    
   760.00    3.230    -25.490      7.05      37.79     1.6480E-04 3.5097E+04       3.964    
   770.00    3.301    -25.869      7.06      37.88     1.6620E-04 3.5437E+04       4.051    
   780.00    3.371    -26.248      7.06      37.97     1.6759E-04 3.5777E+04       4.139    
   790.00    3.442    -26.628      7.07      38.06     1.6897E-04 3.6116E+04       4.228    
   800.00    3.513    -27.009      7.08      38.15     1.7035E-04 3.6455E+04       4.317    
   810.00    3.584    -27.391      7.09      38.24     1.7173E-04 3.6793E+04       4.408    
   820.00    3.655    -27.774      7.10      38.33     1.7309E-04 3.7131E+04       4.499    
   830.00    3.726    -28.158      7.10      38.41     1.7445E-04 3.7469E+04       4.590    
   840.00    3.797    -28.542      7.11      38.50     1.7581E-04 3.7806E+04       4.683    
   850.00    3.868    -28.928      7.12      38.58     1.7716E-04 3.8143E+04       4.776    
   860.00    3.939    -29.314      7.13      38.67     1.7850E-04 3.8480E+04       4.870    
   870.00    4.010    -29.701      7.14      38.75     1.7984E-04 3.8817E+04       4.964    
   880.00    4.082    -30.089      7.15      38.83     1.8117E-04 3.9153E+04       5.059    
   890.00    4.153    -30.478      7.16      38.91     1.8249E-04 3.9489E+04       5.155    
   900.00    4.225    -30.867      7.16      38.99     1.8382E-04 3.9824E+04       5.252    
   910.00    4.297    -31.257      7.17      39.07     1.8513E-04 4.0159E+04       5.349    
   920.00    4.368    -31.648      7.18      39.15     1.8644E-04 4.0494E+04       5.447    
   930.00    4.440    -32.040      7.18      39.23     1.8775E-04 4.0829E+04       5.546    
   940.00    4.512    -32.433      7.19      39.30     1.8905E-04 4.1163E+04       5.645    
   950.00    4.584    -32.826      7.20      39.38     1.9034E-04 4.1497E+04       5.746    
   960.00    4.656    -33.221      7.20      39.45     1.9163E-04 4.1831E+04       5.846    
   970.00    4.728    -33.615      7.20      39.53     1.9292E-04 4.2164E+04       5.948    
   980.00    4.800    -34.011      7.21      39.60     1.9420E-04 4.2497E+04       6.050    
   990.00    4.872    -34.408      7.21      39.68     1.9547E-04 4.2830E+04       6.153    
  1000.01    4.944    -34.805      7.21      39.75     1.9675E-04 4.3163E+04       6.256    
  1010.00    5.016    -35.203      7.22      39.82     1.9801E-04 4.3495E+04       6.360    
  1020.00    5.089    -35.601      7.23      39.89     1.9927E-04 4.3827E+04       6.465    
  1030.00    5.161    -36.000      7.24      39.96     2.0053E-04 4.4158E+04       6.571    
  1040.00    5.233    -36.400      7.25      40.03     2.0179E-04 4.4490E+04       6.677    
  1050.00    5.306    -36.801      7.27      40.10     2.0303E-04 4.4821E+04       6.784    
  1060.00    5.379    -37.202      7.28      40.17     2.0428E-04 4.5152E+04       6.891    
  1070.00    5.452    -37.604      7.29      40.24     2.0552E-04 4.5482E+04       6.999    
  1080.00    5.525    -38.007      7.30      40.31     2.0676E-04 4.5812E+04       7.108    
  1090.00    5.598    -38.411      7.31      40.37     2.0799E-04 4.6142E+04       7.217    
  1100.00    5.671    -38.815      7.32      40.44     2.0922E-04 4.6472E+04       7.327    
  1110.00    5.744    -39.219      7.33      40.51     2.1044E-04 4.6801E+04       7.438    
  1120.00    5.817    -39.625      7.34      40.57     2.1166E-04 4.7131E+04       7.550    
  1130.00    5.891    -40.031      7.35      40.64     2.1288E-04 4.7460E+04       7.662    
  1140.00    5.965    -40.438      7.37      40.70     2.1409E-04 4.7788E+04       7.774    
  1150.00    6.038    -40.845      7.38      40.77     2.1530E-04 4.8117E+04       7.887    
  1160.00    6.112    -41.253      7.39      40.83     2.1650E-04 4.8445E+04       8.001    
  1170.00    6.186    -41.662      7.40      40.90     2.1770E-04 4.8773E+04       8.116    
  1180.00    6.260    -42.071      7.41      40.96     2.1890E-04 4.9100E+04       8.231    
  1190.00    6.334    -42.481      7.42      41.02     2.2009E-04 4.9428E+04       8.347    
  1200.00    6.408    -42.891      7.43      41.08     2.2128E-04 4.9755E+04       8.463    
  1210.00    6.483    -43.302      7.44      41.14     2.2247E-04 5.0082E+04       8.580    
  1220.00    6.557    -43.714      7.45      41.21     2.2365E-04 5.0408E+04       8.698    
  1230.00    6.632    -44.126      7.46      41.27     2.2483E-04 5.0735E+04       8.817    
  1240.00    6.707    -44.539      7.47      41.33     2.2601E-04 5.1061E+04       8.935    
  1250.00    6.781    -44.953      7.48      41.39     2.2718E-04 5.1387E+04       9.055    
  1260.00    6.856    -45.367      7.49      41.45     2.2835E-04 5.1712E+04       9.175    
  1270.00    6.931    -45.782      7.50      41.51     2.2952E-04 5.2038E+04       9.296    
  1280.00    7.006    -46.197      7.51      41.57     2.3068E-04 5.2363E+04       9.417    
  1290.00    7.081    -46.613      7.53      41.62     2.3184E-04 5.2688E+04       9.539    
  1300.00    7.157    -47.030      7.54      41.68     2.3299E-04 5.3012E+04       9.662    
  1310.00    7.232    -47.447      7.55      41.74     2.3415E-04 5.3337E+04       9.785    
  1320.00    7.308    -47.865      7.56      41.80     2.3530E-04 5.3661E+04       9.909    
  1330.00    7.383    -48.283      7.57      41.85     2.3644E-04 5.3985E+04       10.03    
  1340.00    7.459    -48.702      7.58      41.91     2.3759E-04 5.4309E+04       10.16    
  1350.00    7.535    -49.121      7.59      41.97     2.3873E-04 5.4632E+04       10.28    
  1360.00    7.611    -49.541      7.60      42.02     2.3986E-04 5.4955E+04       10.41    
  1370.00    7.687    -49.962      7.61      42.08     2.4100E-04 5.5278E+04       10.54    
  1380.00    7.763    -50.383      7.62      42.13     2.4213E-04 5.5601E+04       10.67    
  1390.00    7.839    -50.804      7.63      42.19     2.4326E-04 5.5924E+04       10.79    
  1400.00    7.915    -51.226      7.64      42.24     2.4438E-04 5.6246E+04       10.92    
  1410.00    7.992    -51.649      7.65      42.30     2.4551E-04 5.6568E+04       11.05    
  1420.00    8.068    -52.072      7.66      42.35     2.4663E-04 5.6890E+04       11.18    
  1430.00    8.145    -52.496      7.67      42.41     2.4774E-04 5.7212E+04       11.31    
  1440.00    8.222    -52.921      7.68      42.46     2.4886E-04 5.7533E+04       11.44    
  1450.00    8.298    -53.345      7.69      42.51     2.4997E-04 5.7855E+04       11.57    
  1460.00    8.375    -53.771      7.70      42.57     2.5108E-04 5.8176E+04       11.71    
  1470.00    8.452    -54.197      7.71      42.62     2.5219E-04 5.8496E+04       11.84    
  1480.00    8.529    -54.623      7.71      42.67     2.5329E-04 5.8817E+04       11.97    
  1490.00    8.607    -55.050      7.72      42.72     2.5439E-04 5.9137E+04       12.11    
  1500.00    8.684    -55.478      7.73      42.77     2.5549E-04 5.9458E+04       12.24    
  1510.00    8.761    -55.906      7.74      42.83     2.5658E-04 5.9777E+04       12.38    
  1520.00    8.839    -56.334      7.75      42.88     2.5768E-04 6.0097E+04       12.51    
  1530.00    8.916    -56.763      7.76      42.93     2.5877E-04 6.0417E+04       12.65    
  1540.00    8.994    -57.193      7.77      42.98     2.5985E-04 6.0736E+04       12.79    
  1550.00    9.072    -57.623      7.78      43.03     2.6094E-04 6.1055E+04       12.92    
  1560.00    9.150    -58.053      7.79      43.08     2.6202E-04 6.1374E+04       13.06    
  1570.00    9.228    -58.484      7.80      43.13     2.6310E-04 6.1693E+04       13.20    
  1580.00    9.306    -58.916      7.81      43.18     2.6418E-04 6.2011E+04       13.34    
  1590.00    9.384    -59.348      7.82      43.23     2.6526E-04 6.2329E+04       13.48    
  1600.00    9.462    -59.780      7.83      43.28     2.6633E-04 6.2647E+04       13.62    
  1610.00    9.540    -60.213      7.84      43.33     2.6740E-04 6.2965E+04       13.76    
  1620.00    9.619    -60.647      7.85      43.37     2.6847E-04 6.3283E+04       13.90    
  1630.00    9.697    -61.081      7.86      43.42     2.6954E-04 6.3600E+04       14.04    
  1640.00    9.776    -61.515      7.86      43.47     2.7060E-04 6.3917E+04       14.19    
  1650.00    9.855    -61.950      7.87      43.52     2.7166E-04 6.4234E+04       14.33    
  1660.00    9.933    -62.386      7.88      43.57     2.7272E-04 6.4551E+04       14.47    
  1670.00   10.012    -62.822      7.89      43.61     2.7378E-04 6.4868E+04       14.62    
  1680.00   10.091    -63.258      7.90      43.66     2.7483E-04 6.5184E+04       14.76    
  1690.00   10.170    -63.695      7.91      43.71     2.7588E-04 6.5500E+04       14.91    
  1700.00   10.249    -64.132      7.92      43.75     2.7693E-04 6.5816E+04       15.05    
  1710.00   10.329    -64.570      7.93      43.80     2.7798E-04 6.6132E+04       15.20    
  1720.00   10.408    -65.008      7.94      43.85     2.7903E-04 6.6448E+04       15.35    
  1730.00   10.487    -65.447      7.95      43.89     2.8007E-04 6.6763E+04       15.49    
  1740.00   10.567    -65.886      7.95      43.94     2.8111E-04 6.7078E+04       15.64    
  1750.00   10.647    -66.326      7.96      43.98     2.8215E-04 6.7393E+04       15.79    
  1760.00   10.726    -66.766      7.97      44.03     2.8319E-04 6.7708E+04       15.94    
  1770.00   10.806    -67.206      7.98      44.07     2.8422E-04 6.8023E+04       16.09    
  1780.00   10.886    -67.647      7.99      44.12     2.8526E-04 6.8337E+04       16.24    
  1790.00   10.966    -68.089      8.00      44.16     2.8629E-04 6.8652E+04       16.39    
  1800.00   11.046    -68.530      8.01      44.21     2.8732E-04 6.8966E+04       16.54    
  1810.00   11.126    -68.973      8.02      44.25     2.8834E-04 6.9279E+04       16.70    
  1820.00   11.206    -69.415      8.02      44.30     2.8937E-04 6.9593E+04       16.85    
  1830.00   11.286    -69.859      8.03      44.34     2.9039E-04 6.9907E+04       17.00    
  1840.00   11.367    -70.302      8.04      44.39     2.9141E-04 7.0220E+04       17.15    
  1850.00   11.447    -70.746      8.05      44.43     2.9243E-04 7.0533E+04       17.31    
  1860.00   11.528    -71.191      8.06      44.47     2.9345E-04 7.0846E+04       17.46    
  1870.00   11.608    -71.636      8.07      44.52     2.9446E-04 7.1159E+04       17.62    
  1880.00   11.689    -72.081      8.07      44.56     2.9548E-04 7.1471E+04       17.77    
  1890.00   11.770    -72.527      8.08      44.60     2.9649E-04 7.1783E+04       17.93    
  1900.00   11.851    -72.973      8.09      44.64     2.9750E-04 7.2096E+04       18.09    
  1910.00   11.932    -73.420      8.10      44.69     2.9851E-04 7.2408E+04       18.25    
  1920.00   12.013    -73.867      8.11      44.73     2.9951E-04 7.2719E+04       18.40    
  1930.00   12.094    -74.314      8.12      44.77     3.0052E-04 7.3031E+04       18.56    
  1940.00   12.175    -74.762      8.12      44.81     3.0152E-04 7.3342E+04       18.72    
  1950.00   12.256    -75.211      8.13      44.85     3.0252E-04 7.3654E+04       18.88    
  1960.00   12.338    -75.659      8.14      44.90     3.0352E-04 7.3965E+04       19.04    
  1970.00   12.419    -76.109      8.15      44.94     3.0451E-04 7.4275E+04       19.20    
  1980.00   12.501    -76.558      8.16      44.98     3.0551E-04 7.4586E+04       19.36    
  1990.00   12.582    -77.008      8.16      45.02     3.0650E-04 7.4897E+04       19.52    
  2000.00   12.664    -77.459      8.17      45.06     3.0749E-04 7.5207E+04       19.69    
  2010.00   12.746    -77.909      8.18      45.10     3.0848E-04 7.5517E+04       19.85    
  2020.00   12.828    -78.361      8.19      45.14     3.0947E-04 7.5827E+04       20.01    
  2030.00   12.909    -78.812      8.20      45.18     3.1046E-04 7.6137E+04       20.18    
  2040.00   12.991    -79.264      8.20      45.22     3.1144E-04 7.6446E+04       20.34    
  2050.00   13.074    -79.717      8.21      45.26     3.1242E-04 7.6756E+04       20.51    
  2060.00   13.156    -80.170      8.22      45.30     3.1340E-04 7.7065E+04       20.67    
  2070.00   13.238    -80.623      8.23      45.34     3.1438E-04 7.7374E+04       20.84    
  2080.00   13.320    -81.076      8.24      45.38     3.1536E-04 7.7683E+04       21.00    
  2090.00   13.403    -81.530      8.24      45.42     3.1634E-04 7.7992E+04       21.17    
  2100.00   13.485    -81.985      8.25      45.46     3.1731E-04 7.8300E+04       21.34    
  2110.00   13.568    -82.440      8.26      45.50     3.1828E-04 7.8608E+04       21.51    
  2120.00   13.650    -82.895      8.27      45.54     3.1925E-04 7.8917E+04       21.67    
  2130.00   13.733    -83.351      8.27      45.58     3.2022E-04 7.9225E+04       21.84    
  2140.00   13.816    -83.806      8.28      45.62     3.2119E-04 7.9532E+04       22.01    
  2150.00   13.899    -84.263      8.29      45.66     3.2216E-04 7.9840E+04       22.18    
  2160.00   13.982    -84.720      8.30      45.70     3.2312E-04 8.0148E+04       22.35    
  2170.00   14.065    -85.177      8.31      45.73     3.2409E-04 8.0455E+04       22.53    
  2180.00   14.148    -85.634      8.31      45.77     3.2505E-04 8.0762E+04       22.70    
  2190.00   14.231    -86.092      8.32      45.81     3.2601E-04 8.1069E+04       22.87    
  2200.00   14.314    -86.550      8.33      45.85     3.2697E-04 8.1376E+04       23.04    
  2210.00   14.397    -87.009      8.34      45.89     3.2792E-04 8.1682E+04       23.22    
  2220.00   14.481    -87.468      8.34      45.92     3.2888E-04 8.1989E+04       23.39    
  2230.00   14.564    -87.928      8.35      45.96     3.2983E-04 8.2295E+04       23.56    
  2240.00   14.648    -88.387      8.36      46.00     3.3078E-04 8.2601E+04       23.74    
  2250.00   14.731    -88.848      8.37      46.04     3.3174E-04 8.2907E+04       23.91    
  2260.00   14.815    -89.308      8.37      46.07     3.3268E-04 8.3213E+04       24.09    
  2270.00   14.899    -89.769      8.38      46.11     3.3363E-04 8.3518E+04       24.27    
  2280.00   14.983    -90.230      8.39      46.15     3.3458E-04 8.3824E+04       24.44    
  2290.00   15.067    -90.692      8.39      46.18     3.3552E-04 8.4129E+04       24.62    
  2300.00   15.151    -91.154      8.40      46.22     3.3647E-04 8.4434E+04       24.80    
  2310.00   15.235    -91.616      8.41      46.26     3.3741E-04 8.4739E+04       24.98    
  2320.00   15.319    -92.079      8.42      46.29     3.3835E-04 8.5044E+04       25.15    
  2330.00   15.403    -92.542      8.42      46.33     3.3929E-04 8.5348E+04       25.33    
  2340.00   15.487    -93.006      8.43      46.36     3.4023E-04 8.5653E+04       25.51    
  2350.00   15.572    -93.469      8.44      46.40     3.4116E-04 8.5957E+04       25.69    
  2360.00   15.656    -93.934      8.44      46.44     3.4210E-04 8.6261E+04       25.87    
  2370.00   15.741    -94.398      8.45      46.47     3.4303E-04 8.6565E+04       26.06    
  2380.00   15.825    -94.863      8.46      46.51     3.4397E-04 8.6869E+04       26.24    
  2390.00   15.910    -95.328      8.47      46.54     3.4490E-04 8.7172E+04       26.42    
  2400.00   15.994    -95.794      8.47      46.58     3.4583E-04 8.7476E+04       26.60    
  2410.00   16.079    -96.260      8.48      46.61     3.4675E-04 8.7779E+04       26.79    
  2420.00   16.164    -96.726      8.49      46.65     3.4768E-04 8.8082E+04       26.97    
  2430.00   16.249    -97.193      8.49      46.68     3.4861E-04 8.8385E+04       27.15    
  2440.00   16.334    -97.660      8.50      46.72     3.4953E-04 8.8688E+04       27.34    
  2450.00   16.419    -98.127      8.51      46.75     3.5045E-04 8.8990E+04       27.52    
  2460.00   16.504    -98.595      8.51      46.79     3.5138E-04 8.9293E+04       27.71    
  2470.00   16.589    -99.063      8.52      46.82     3.5230E-04 8.9595E+04       27.90    
  2480.00   16.674    -99.531      8.53      46.86     3.5322E-04 8.9897E+04       28.08    
  2490.00   16.760   -100.000      8.53      46.89     3.5413E-04 9.0199E+04       28.27    
  2500.00   16.845   -100.469      8.54      46.93     3.5505E-04 9.0501E+04       28.46    
  2510.00   16.931   -100.939      8.55      46.96     3.5596E-04 9.0803E+04       28.65    
  2520.00   17.016   -101.408      8.55      46.99     3.5688E-04 9.1104E+04       28.84    
  2530.00   17.102   -101.879      8.56      47.03     3.5779E-04 9.1406E+04       29.02    
  2540.00   17.187   -102.349      8.57      47.06     3.5870E-04 9.1707E+04       29.21    
  2550.00   17.273   -102.820      8.58      47.10     3.5961E-04 9.2008E+04       29.40    
  2560.00   17.359   -103.291      8.58      47.13     3.6052E-04 9.2309E+04       29.60    
  2570.00   17.445   -103.762      8.59      47.16     3.6143E-04 9.2609E+04       29.79    
  2580.00   17.531   -104.234      8.59      47.20     3.6234E-04 9.2910E+04       29.98    
  2590.00   17.617   -104.706      8.60      47.23     3.6324E-04 9.3210E+04       30.17    
  2600.00   17.703   -105.179      8.61      47.26     3.6414E-04 9.3510E+04       30.36    
  2610.00   17.789   -105.651      8.61      47.30     3.6505E-04 9.3810E+04       30.56    
  2620.00   17.875   -106.125      8.62      47.33     3.6595E-04 9.4110E+04       30.75    
  2630.00   17.961   -106.598      8.63      47.36     3.6685E-04 9.4410E+04       30.94    
  2640.00   18.047   -107.072      8.63      47.39     3.6775E-04 9.4710E+04       31.14    
  2650.00   18.134   -107.546      8.64      47.43     3.6865E-04 9.5009E+04       31.33    
  2660.00   18.220   -108.020      8.65      47.46     3.6954E-04 9.5308E+04       31.53    
  2670.00   18.307   -108.495      8.65      47.49     3.7044E-04 9.5607E+04       31.73    
  2680.00   18.393   -108.970      8.66      47.52     3.7133E-04 9.5906E+04       31.92    
  2690.00   18.480   -109.446      8.67      47.56     3.7223E-04 9.6205E+04       32.12    
  2700.00   18.567   -109.921      8.67      47.59     3.7312E-04 9.6504E+04       32.32    
  2710.00   18.653   -110.397      8.68      47.62     3.7401E-04 9.6802E+04       32.52    
  2720.00   18.740   -110.874      8.69      47.65     3.7490E-04 9.7101E+04       32.71    
  2730.00   18.827   -111.350      8.69      47.68     3.7579E-04 9.7399E+04       32.91    
  2740.00   18.914   -111.827      8.70      47.72     3.7668E-04 9.7697E+04       33.11    
  2750.00   19.001   -112.305      8.70      47.75     3.7756E-04 9.7995E+04       33.31    
  2760.00   19.088   -112.782      8.71      47.78     3.7845E-04 9.8293E+04       33.51    
  2770.00   19.175   -113.260      8.72      47.81     3.7933E-04 9.8590E+04       33.71    
  2780.00   19.262   -113.739      8.72      47.84     3.8021E-04 9.8888E+04       33.92    
  2790.00   19.350   -114.217      8.73      47.87     3.8110E-04 9.9185E+04       34.12    
  2800.00   19.437   -114.696      8.73      47.90     3.8198E-04 9.9482E+04       34.32    
  2810.00   19.524   -115.175      8.74      47.94     3.8286E-04 9.9779E+04       34.52    
  2820.00   19.612   -115.655      8.75      47.97     3.8374E-04 1.0008E+05       34.73    
  2830.00   19.699   -116.135      8.75      48.00     3.8461E-04 1.0037E+05       34.93    
  2840.00   19.787   -116.615      8.76      48.03     3.8549E-04 1.0067E+05       35.13    
  2850.00   19.875   -117.095      8.77      48.06     3.8637E-04 1.0097E+05       35.34    
  2860.00   19.962   -117.576      8.77      48.09     3.8724E-04 1.0126E+05       35.54    
  2870.00   20.050   -118.057      8.78      48.12     3.8811E-04 1.0156E+05       35.75    
  2880.00   20.138   -118.538      8.78      48.15     3.8899E-04 1.0185E+05       35.96    
  2890.00   20.226   -119.020      8.79      48.18     3.8986E-04 1.0215E+05       36.16    
  2900.00   20.314   -119.502      8.80      48.21     3.9073E-04 1.0245E+05       36.37    
  2910.00   20.402   -119.984      8.80      48.24     3.9160E-04 1.0274E+05       36.58    
  2920.00   20.490   -120.467      8.81      48.27     3.9246E-04 1.0304E+05       36.79    
  2930.00   20.578   -120.950      8.81      48.30     3.9333E-04 1.0333E+05       36.99    
  2940.00   20.666   -121.433      8.82      48.33     3.9420E-04 1.0363E+05       37.20    
  2950.00   20.754   -121.916      8.82      48.36     3.9506E-04 1.0392E+05       37.41    
  2960.00   20.842   -122.400      8.83      48.39     3.9593E-04 1.0422E+05       37.62    
  2970.00   20.931   -122.884      8.84      48.42     3.9679E-04 1.0451E+05       37.83    
  2980.00   21.019   -123.369      8.84      48.45     3.9765E-04 1.0480E+05       38.04    
  2990.00   21.107   -123.853      8.85      48.48     3.9851E-04 1.0510E+05       38.26    
  3000.00   21.196   -124.338      8.85      48.51     3.9937E-04 1.0539E+05       38.47    